#wavelength,nm	n	k
300	2.67	0.323512235
310	2.67	0.323512235
320	2.67	0.323512235
330	2.67	0.323512235
340	2.67	0.323512235
350	2.67	0.323512235
360	2.67	0.323512235
370	2.67	0.323512235
380	2.67	0.323512235
390	2.67	0.323512235
400	2.67	0.323512235
410	2.67	0.323512235
420	2.67	0.323512235
430	2.67	0.323512235
440	2.67	0.323512235
450	2.67	0.323512235
460	2.67	0.323512235
470	2.67	0.323512235
480	2.67	0.323512235
490	2.67	0.323512235
500	2.67	0.323512235
506	2.67	0.323512235
507	2.67	0.327625107
508	2.67	0.324880431
509	2.67	0.325568878
510	2.67	0.322845648
511	2.67	0.316793442
512	2.67	0.317469049
513	2.67	0.311520479
514	2.67	0.312187687
515	2.67	0.306340896
516	2.67	0.303785592
518	2.67	0.301253001
519	2.67	0.295616368
520	2.67	0.296256369
521	2.67	0.290714752
522	2.67	0.291346879
523	2.67	0.28589981
524	2.67	0.280555929
526	2.67	0.281169972
527	2.67	0.275918321
528	2.67	0.276524871
529	2.67	0.271361467
530	2.67	0.266295786
531	2.67	0.26688507
533	2.67	0.261905528
534	2.67	0.262487673
535	2.67	0.257593842
536	2.67	0.252791438
537	2.67	0.253357099
538	2.67	0.248636184
540	2.67	0.246586104
541	2.67	0.244554168
542	2.67	0.240000952
543	2.67	0.240544069
545	2.67	0.236068978
546	2.67	0.234128514
547	2.67	0.232205205
548	2.67	0.227887822
550	2.67	0.228409431
551	2.67	0.224164983
552	2.67	0.220000583
553	2.67	0.220508602
555	2.67	0.216414442
556	2.67	0.214644598
557	2.67	0.212890373
559	2.67	0.208941054
560	2.67	0.207235693
561	2.67	0.205545373
562	2.67	0.201735636
564	2.67	0.200093288
565	2.67	0.198464512
566	2.67	0.194789275
568	2.67	0.193205833
569	2.67	0.191636338
570	2.67	0.188090739
572	2.67	0.186564911
573	2.67	0.185053368
575	2.67	0.181632693
576	2.67	0.180162354
577	2.67	0.17870495
579	2.67	0.175404688
580	2.67	0.173987801
582	2.67	0.172583372
583	2.67	0.169399163
584	2.67	0.168034552
586	2.67	0.166681145
587	2.67	0.163608779
589	2.67	0.162292969
590	2.67	0.159303426
592	2.67	0.15802416
593	2.67	0.155115157
595	2.67	0.153872146
596	2.67	0.152639308
597	2.67	0.149832227
599	2.67	0.148633608
600	2.67	0.145902032
602	2.67	0.144736672
603	2.67	0.142078523
605	2.67	0.140946179
607	2.67	0.138359426
608	2.67	0.137257819
610	2.67	0.134740509
611	2.67	0.133669448
613	2.67	0.131219674
614	2.67	0.128815655
616	2.67	0.127794211
617	2.67	0.125455246
619	2.67	0.124462106
621	2.67	0.123477654
622	2.67	0.119950712
624	2.67	0.117757926
625	2.67	0.116828884
627	2.67	0.115907963
629	2.67	0.113792011
630	2.67	0.111714909
632	2.67	0.109676498
634	2.67	0.107676046
635	2.67	0.105712838
637	2.67	0.103786171
639	2.67	0.101895355
641	2.67	0.102167164
642	2.67	0.100307806
644	2.67	0.098482504
646	2.67	0.096691132
647	2.67	0.094933052
649	2.67	0.093207635
651	2.67	0.091514268
653	2.67	0.089852345
654	2.67	0.08822174
656	2.67	0.085714411
658	2.67	0.084159762
660	2.67	0.082633952
662	2.67	0.081136438
664	2.67	0.079666688
665	2.67	0.078224179
667	2.67	0.076004632
669	2.67	0.073849077
671	2.67	0.072513668
673	2.67	0.071202985
675	2.67	0.069916562
677	2.67	0.067224716
679	2.67	0.066011276
680	2.67	0.064820277
682	2.67	0.062985658
684	2.67	0.06120317
686	2.67	0.059471658
688	2.67	0.058400655
690	2.67	0.056155725
692	2.67	0.05514541
694	2.67	0.053026617
696	2.67	0.050990028
698	2.67	0.05060336
700	2.67	0.049174887
702	2.67	0.047386886
704	2.67	0.04547271
706	2.67	0.044190375
709	2.67	0.042495476
711	2.67	0.040866027
713	2.67	0.039715039
715	2.67	0.038596638
717	2.67	0.037117879
719	2.67	0.035696182
721	2.67	0.034329335
724	2.67	0.033015211
726	2.67	0.031751769
728	2.67	0.030537223
730	2.67	0.029679552
732	2.67	0.028544784
735	2.67	0.027453748
737	2.67	0.026404749
739	2.67	0.025396162
741	2.67	0.024426421
744	2.67	0.023248573
746	2.67	0.022361597
748	2.67	0.021283973
751	2.67	0.020472425
753	2.67	0.01948647
755	2.67	0.018548324
758	2.67	0.017655661
760	2.67	0.016806268
763	2.67	0.01599814
765	2.67	0.015070183
767	2.67	0.014196401
770	2.67	0.013514559
772	2.67	0.012731603
775	2.67	0.011869326
777	2.67	0.011182351
780	2.67	0.01031714
782	2.67	0.009720736
785	2.67	0.009063742
788	2.67	0.008363619
790	2.67	0.007718026
793	2.67	0.007122712
795	2.67	0.006505519
798	2.67	0.005942335
801	2.67	0.005428466
803	2.67	0.004908193
806	2.67	0.004438404
809	2.67	0.003972772
812	2.67	0.003542015
814	2.67	0.003113379
817	2.67	0.00268175
820	2.67	0.002052291
823	2.67	0.001964769
826	2.67	0.001188927
828	2.67	0.000662176
831	2.67	0.000385298
834	2.67	0.000236893
837	2.67	0.000128881
840	2.67	9.47E-05
843	2.67	8.15E-05
846	2.67	7.34E-05
849	2.67	6.87E-05
852	2.67	2.87432E-05
855	2.67	1.93444E-05
858	2.67	1.30189E-05